% This file was created with tikzplotlib v0.10.1.
% Plottet bruker eksempeldata
\begin{tikzpicture}

\definecolor{darkgray176}{RGB}{176,176,176}
\definecolor{darkorange25512714}{RGB}{255,127,14}
\definecolor{steelblue31119180}{RGB}{31,119,180}

\begin{axis}[
tick align=outside,
tick pos=left,
title={Hastighet PI-regulator},
x grid style={darkgray176},
xlabel={\(\displaystyle t\) [ms]},
xmin=-23.09538, xmax=485.00298,
xtick style={color=black},
xtick={-100,0,100,200,300,400,500},
xticklabels={
  \(\displaystyle {\ensuremath{-}100}\),
  \(\displaystyle {0}\),
  \(\displaystyle {100}\),
  \(\displaystyle {200}\),
  \(\displaystyle {300}\),
  \(\displaystyle {400}\),
  \(\displaystyle {500}\)
},
y grid style={darkgray176},
ylabel={\(\displaystyle V\) [V]},
ymin=-10.512697, ymax=10.756837,
ytick style={color=black},
ytick={-12.5,-10,-7.5,-5,-2.5,0,2.5,5,7.5,10,12.5},
yticklabels={
  \(\displaystyle {\ensuremath{-}12.5}\),
  \(\displaystyle {\ensuremath{-}10.0}\),
  \(\displaystyle {\ensuremath{-}7.5}\),
  \(\displaystyle {\ensuremath{-}5.0}\),
  \(\displaystyle {\ensuremath{-}2.5}\),
  \(\displaystyle {0.0}\),
  \(\displaystyle {2.5}\),
  \(\displaystyle {5.0}\),
  \(\displaystyle {7.5}\),
  \(\displaystyle {10.0}\),
  \(\displaystyle {12.5}\)
}
]
\addplot [semithick, steelblue31119180]
table {%
0 -9.2041
0.0923999999997704 -9.35059
0.184799999999985 -9.2041
0.277199999999755 -9.30176
0.36959999999997 -9.30176
0.46199999999974 -9.30176
0.554399999999955 -9.15527
0.646799999999725 -9.2041
0.73919999999994 -9.2041
0.83159999999971 -9.15527
0.923999999999925 -9.10645
1.0163999999997 -8.95996
1.10879999999991 -9.00879
1.20119999999968 -9.2041
1.29359999999989 -9.25293
1.38599999999967 -9.05762
1.47839999999988 -9.25293
1.57079999999965 -9.35059
1.66319999999986 -9.25293
1.75559999999964 -9.10645
1.84799999999985 -9.2041
1.94039999999962 -9.2041
2.03279999999983 -9.30176
2.12519999999961 -9.2041
2.21759999999982 -9.10645
2.30999999999959 -9.05762
2.4023999999998 -9.10645
2.49479999999958 -9.00879
2.58719999999979 -9.10645
2.6796 -9.10645
2.77199999999977 -8.95996
2.86439999999999 -9.15527
2.95679999999976 -9.05762
3.04919999999997 -9.10645
3.14159999999974 -9.10645
3.23399999999996 -9.15527
3.32639999999973 -9.15527
3.41879999999994 -9.10645
3.51119999999971 -9.00879
3.60359999999993 -9.00879
3.6959999999997 -8.95996
3.78839999999991 -9.15527
3.88079999999968 -9.05762
3.9731999999999 -9.10645
4.06559999999967 -9.15527
4.15799999999988 -9.10645
4.25039999999965 -9.35059
4.34279999999987 -9.2041
4.43519999999964 -9.25293
4.52759999999985 -9.2041
4.61999999999962 -9.05762
4.71239999999984 -9.10645
4.80479999999961 -9.10645
4.89719999999982 -9.00879
4.98959999999959 -9.05762
5.08199999999981 -9.2041
5.17439999999958 -9.15527
5.26679999999979 -9.10645
5.35920000000001 -9.25293
5.45159999999978 -9.30176
5.54399999999999 -9.30176
5.63639999999976 -9.10645
5.72879999999998 -9.25293
5.82119999999975 -9.30176
5.91359999999996 -9.10645
6.00599999999973 -9.05762
6.09839999999995 -9.15527
6.19079999999972 -9.05762
6.28319999999993 -9.10645
6.3755999999997 -9.2041
6.46799999999992 -9.05762
6.56039999999969 -9.2041
6.6527999999999 -9.25293
6.74519999999967 -9.30176
6.83759999999989 -9.39941
6.92999999999966 -9.30176
7.02239999999987 -9.44824
7.11479999999964 -9.30176
7.20719999999986 -9.15527
7.29959999999963 -9.10645
7.39199999999984 -9.25293
7.48439999999961 -9.05762
7.57679999999983 -9.15527
7.6691999999996 -9.25293
7.76159999999981 -9.30176
7.85399999999958 -9.39941
7.9463999999998 -9.15527
8.03880000000001 -9.30176
8.13119999999978 -9.39941
8.2236 -9.35059
8.31599999999977 -9.25293
8.40839999999998 -9.2041
8.50079999999975 -9.30176
8.59319999999997 -9.30176
8.68559999999974 -8.95996
8.77799999999995 -9.05762
8.87039999999972 -9.00879
8.96279999999994 -9.2041
9.05519999999971 -9.15527
9.14759999999992 -9.30176
9.23999999999969 -9.30176
9.33239999999991 -9.25293
9.42479999999968 -9.25293
9.51719999999989 -9.30176
9.60959999999966 -9.15527
9.70199999999988 -9.30176
9.79439999999965 -9.35059
9.88679999999986 -9.2041
9.97919999999963 -9.05762
10.0715999999998 -9.10645
10.1639999999996 -9.10645
10.2563999999998 -9.30176
10.3487999999996 -9.2041
10.4411999999998 -9.30176
10.5335999999996 -9.39941
10.6259999999998 -9.2041
10.7184 -9.35059
10.8107999999998 -9.15527
10.9032 -8.95996
10.9955999999998 -9.10645
11.088 -9.15527
11.1803999999998 -9.10645
11.2728 -8.81348
11.3651999999997 -8.95996
11.4576 -8.95996
11.5499999999997 -9.05762
11.6423999999999 -9.10645
11.7347999999997 -9.30176
11.8271999999999 -9.15527
11.9195999999997 -9.2041
12.0119999999999 -9.05762
12.1043999999997 -9.00879
12.1967999999999 -9.10645
12.2891999999997 -9.15527
12.3815999999999 -9.10645
12.4739999999997 -8.95996
12.5663999999999 -8.8623
12.6587999999996 -8.8623
12.7511999999999 -9.10645
12.8435999999996 -9.10645
12.9359999999998 -9.10645
13.0283999999996 -9.15527
13.1207999999998 -9.15527
13.2131999999996 -9.25293
13.3055999999998 -9.2041
13.3979999999996 -9.2041
13.4903999999998 -9.2041
13.5828 -9.05762
13.6751999999998 -9.25293
13.7676 -9.10645
13.8599999999998 -9.10645
13.9524 -9.10645
14.0447999999997 -9.10645
14.1372 -9.2041
14.2295999999997 -9.15527
14.3219999999999 -9.2041
14.4143999999997 -9.44824
14.5067999999999 -9.15527
14.5991999999997 -9.05762
14.6915999999999 -9.2041
14.7839999999997 -9.39941
14.8763999999999 -9.2041
14.9687999999997 -9.2041
15.0611999999999 -9.25293
15.1535999999997 -9.15527
15.2459999999999 -8.95996
15.3383999999996 -9.10645
15.4307999999999 -9.30176
15.5231999999996 -9.10645
15.6155999999998 -9.2041
15.7079999999996 -9.30176
15.8003999999998 -9.30176
15.8927999999996 -9.2041
15.9851999999998 -9.35059
16.0775999999996 -9.35059
16.1699999999998 -9.35059
16.2624 -9.25293
16.3547999999998 -9.15527
16.4472 -9.10645
16.5395999999998 -9.2041
16.632 -9.30176
16.7243999999998 -9.35059
16.8168 -9.10645
16.9091999999997 -9.30176
17.0016 -9.35059
17.0939999999997 -9.39941
17.1863999999999 -9.30176
17.2787999999997 -9.39941
17.3711999999999 -9.39941
17.4635999999997 -9.30176
17.5559999999999 -9.00879
17.6483999999997 -9.25293
17.7407999999999 -9.05762
17.8331999999997 -9.00879
17.9255999999999 -9.25293
18.0179999999996 -9.10645
18.1103999999999 -9.2041
18.2027999999996 -9.25293
18.2951999999998 -9.30176
18.3875999999996 -9.2041
18.4799999999998 -9.25293
18.5723999999996 -9.25293
18.6647999999998 -9.2041
18.7571999999996 -9.10645
18.8495999999998 -9.35059
18.942 -8.95996
19.0343999999998 -8.95996
19.1268 -9.25293
19.2191999999998 -9.2041
19.3116 -9.00879
19.4039999999998 -9.2041
19.4964 -9.25293
19.5887999999997 -9.10645
19.6812 -9.2041
19.7735999999997 -9.25293
19.8659999999999 -9.2041
19.9583999999997 -9.25293
20.0507999999999 -9.05762
20.1431999999997 -9.15527
20.2355999999999 -9.10645
20.3279999999997 -9.10645
20.4203999999999 -9.15527
20.5127999999997 -9.00879
20.6051999999999 -8.95996
20.6975999999996 -8.95996
20.7899999999999 -9.10645
20.8823999999996 -8.95996
20.9747999999998 -9.2041
21.0671999999996 -9.2041
21.1595999999998 -9.00879
21.2519999999996 -9.00879
21.3443999999998 -9.15527
21.4367999999996 -8.91113
21.5291999999998 -8.76465
21.6216 -8.91113
21.7139999999998 -9.10645
21.8064 -9.15527
21.8987999999998 -9.25293
21.9912 -9.15527
22.0835999999998 -9.25293
22.176 -9.2041
22.2683999999997 -9.39941
22.3608 -9.2041
22.4531999999997 -9.2041
22.5455999999999 -9.15527
22.6379999999997 -9.05762
22.7303999999999 -9.25293
22.8227999999997 -8.95996
22.9151999999999 -9.00879
23.0075999999997 -9.2041
23.0999999999999 -9.05762
23.1923999999997 -9.15527
23.2847999999999 -9.30176
23.3771999999997 -9.30176
23.4695999999999 -9.35059
23.5619999999996 -9.05762
23.6543999999999 -9.2041
23.7467999999996 -9.30176
23.8391999999998 -9.2041
23.9315999999996 -9.05762
24.0239999999998 -9.15527
24.1163999999996 -9.25293
24.2087999999998 -9.15527
24.3011999999996 -9.10645
24.3935999999998 -9.30176
24.486 -9.30176
24.5783999999998 -9.25293
24.6708 -9.2041
24.7631999999998 -9.35059
24.8556 -9.35059
24.9479999999997 -9.35059
25.0404 -9.30176
25.1327999999997 -9.2041
25.2251999999999 -9.2041
25.3175999999997 -9.25293
25.4099999999999 -9.2041
25.5023999999997 -9.05762
25.5947999999999 -9.2041
25.6871999999997 -9.44824
25.7795999999999 -9.2041
25.8719999999997 -9.39941
25.9643999999999 -9.30176
26.0567999999997 -9.25293
26.1491999999999 -9.49707
26.2415999999996 -9.49707
26.3339999999999 -9.35059
26.4263999999996 -9.39941
26.5187999999998 -9.05762
26.6111999999996 -8.8623
26.7035999999998 -8.95996
26.7959999999996 -9.05762
26.8883999999998 -9.2041
26.9807999999996 -9.25293
27.0731999999998 -9.10645
27.1656 -9.2041
27.2579999999998 -9.30176
27.3504 -9.25293
27.4427999999998 -9.30176
27.5352 -9.30176
27.6275999999998 -9.10645
27.72 -9.15527
27.8123999999997 -9.25293
27.9048 -9.15527
27.9971999999997 -9.10645
28.0895999999999 -9.10645
28.1819999999997 -9.00879
28.2743999999999 -9.10645
28.3667999999997 -9.30176
28.4591999999999 -9.2041
28.5515999999997 -9.2041
28.6439999999999 -9.30176
28.7363999999997 -9.10645
28.8287999999999 -9.15527
28.9211999999996 -9.2041
29.0135999999999 -9.2041
29.1059999999996 -9.05762
29.1983999999998 -9.00879
29.2907999999996 -8.8623
29.3831999999998 -9.05762
29.4755999999996 -9.00879
29.5679999999998 -9.00879
29.6603999999996 -8.95996
29.7527999999998 -9.2041
29.8452 -9.10645
29.9375999999998 -9.05762
30.03 -9.10645
30.1223999999998 -9.10645
30.2148 -9.05762
30.3071999999998 -8.95996
30.3996 -9.00879
30.4919999999997 -9.00879
30.5844 -8.91113
30.6767999999997 -9.10645
30.7691999999999 -9.10645
30.8615999999997 -9.00879
30.9539999999999 -9.30176
31.0463999999997 -9.30176
31.1387999999999 -9.30176
31.2311999999997 -9.25293
31.3235999999999 -9.25293
31.4159999999997 -9.15527
31.5083999999999 -9.15527
31.6007999999997 -9.25293
31.6931999999999 -9.10645
31.7855999999996 -9.10645
31.8779999999999 -8.95996
31.9703999999996 -9.2041
32.0627999999998 -9.10645
32.1551999999996 -9.25293
32.2475999999998 -9.25293
32.3399999999996 -9.2041
32.4323999999998 -9.39941
32.5247999999996 -9.30176
32.6171999999998 -9.39941
32.7096 -9.44824
32.8019999999998 -9.30176
32.8944 -9.25293
32.9867999999998 -9.05762
33.0792 -9.10645
33.1715999999997 -9.10645
33.264 -9.2041
33.3563999999997 -9.2041
33.4487999999999 -9.35059
33.5411999999997 -9.15527
33.6335999999999 -9.35059
33.7259999999997 -9.30176
33.8183999999999 -9.2041
33.9107999999997 -9.30176
34.0031999999999 -9.15527
34.0955999999997 -9.30176
34.1879999999999 -9.2041
34.2803999999997 -9.05762
34.3727999999999 -9.05762
34.4651999999996 -9.30176
34.5575999999999 -9.2041
34.6499999999996 -9.25293
34.7423999999998 -9.25293
34.8347999999996 -9.39941
34.9271999999998 -9.2041
35.0195999999996 -9.30176
35.1119999999998 -9.25293
35.2043999999996 -9.30176
35.2967999999998 -9.30176
35.3892 -9.2041
35.4815999999998 -9.2041
35.574 -9.25293
35.6663999999998 -9.10645
35.7588 -9.15527
35.8511999999997 -9.2041
35.9436 -9.05762
36.0359999999997 -9.10645
36.1283999999999 -9.30176
36.2207999999997 -9.2041
36.3131999999999 -9.10645
36.4055999999997 -9.2041
36.4979999999999 -9.44824
36.5903999999997 -9.05762
36.6827999999999 -9.15527
36.7751999999997 -9.15527
36.8675999999999 -9.00879
36.9599999999997 -9.00879
37.0523999999999 -9.10645
37.1447999999996 -9.15527
37.2371999999999 -9.10645
37.3295999999996 -9.25293
37.4219999999998 -9.39941
37.5143999999996 -9.2041
37.6067999999998 -9.35059
37.6991999999996 -9.2041
37.7915999999998 -9.30176
37.8839999999996 -9.10645
37.9763999999998 -9.10645
38.0688 -9.2041
38.1611999999998 -9.05762
38.2536 -9.00879
38.3459999999998 -9.00879
38.4384 -9.05762
38.5307999999998 -8.95996
38.6232 -9.05762
38.7155999999997 -9.10645
38.808 -9.25293
38.9003999999997 -9.10645
38.9927999999999 -9.10645
39.0851999999997 -9.00879
39.1775999999999 -9.10645
39.2699999999997 -8.95996
39.3623999999999 -8.95996
39.4547999999997 -8.95996
39.5471999999999 -8.81348
39.6395999999997 -9.10645
39.7319999999999 -9.10645
39.8243999999996 -9.10645
39.9167999999999 -9.2041
40.0091999999996 -9.25293
40.1015999999998 -9.25293
40.1939999999996 -9.25293
40.2863999999998 -9.25293
40.3787999999996 -9.25293
40.4711999999998 -9.2041
40.5635999999996 -9.00879
40.6559999999998 -9.10645
40.7484 -9.05762
40.8407999999998 -9.05762
40.9332 -9.10645
41.0255999999998 -9.10645
41.118 -9.10645
41.2103999999998 -9.35059
41.3028 -9.30176
41.3951999999997 -9.44824
41.4876 -9.2041
41.5799999999997 -9.39941
41.6723999999999 -9.15527
41.7647999999997 -9.05762
41.8571999999999 -9.10645
41.9495999999997 -9.25293
42.0419999999999 -9.10645
42.1343999999997 -9.15527
42.2267999999999 -9.2041
42.3191999999997 -9.30176
42.4115999999999 -9.35059
42.5039999999996 -9.15527
42.5963999999999 -9.25293
42.6887999999996 -9.25293
42.7811999999999 -9.30176
42.8735999999996 -9.30176
42.9659999999998 -9.44824
43.0583999999996 -9.25293
43.1507999999998 -9.2041
43.2431999999996 -9.00879
43.3355999999998 -8.81348
43.4279999999996 -8.95996
43.5203999999998 -9.10645
43.6128 -9.2041
43.7051999999998 -9.30176
43.7976 -9.39941
43.8899999999998 -9.30176
43.9824 -9.35059
44.0747999999997 -9.30176
44.1672 -9.25293
44.2595999999997 -9.2041
44.3519999999999 -9.35059
44.4443999999997 -9.10645
44.5367999999999 -9.00879
44.6291999999997 -9.00879
44.7215999999999 -9.05762
44.8139999999997 -9.05762
44.9063999999999 -9.15527
44.9987999999997 -9.25293
45.0911999999999 -9.25293
45.1835999999997 -9.30176
45.2759999999999 -9.35059
45.3683999999996 -9.30176
45.4607999999999 -9.05762
45.5531999999996 -9.2041
45.6455999999998 -9.25293
45.7379999999996 -9.10645
45.8303999999998 -9.00879
45.9227999999996 -8.8623
46.0151999999998 -8.8623
46.1075999999996 -9.10645
46.1999999999998 -9.2041
46.2924 -9.30176
46.3847999999998 -9.35059
46.4772 -9.15527
46.5695999999998 -9.10645
46.662 -9.15527
46.7543999999997 -9.15527
46.8468 -9.2041
46.9391999999997 -9.10645
47.0316 -9.15527
47.1239999999997 -9.05762
47.2163999999999 -8.95996
47.3087999999997 -8.81348
47.4011999999999 -9.00879
47.4935999999997 -9.10645
47.5859999999999 -9.10645
47.6783999999997 -9.25293
47.7707999999999 -9.00879
47.8631999999997 -9.10645
47.9555999999999 -9.10645
48.0479999999996 -9.05762
48.1403999999999 -9.2041
48.2327999999996 -9.15527
48.3251999999998 -9.05762
48.4175999999996 -8.91113
48.5099999999998 -8.8623
48.6023999999996 -9.10645
48.6947999999998 -9.10645
48.7871999999996 -9.15527
48.8795999999998 -9.10645
48.972 -9.2041
49.0643999999998 -9.15527
49.1568 -9.39941
49.2491999999998 -9.15527
49.3416 -9.30176
49.4339999999998 -9.30176
49.5264 -9.30176
49.6187999999997 -8.91113
49.7112 -8.95996
49.8035999999997 -9.10645
49.8959999999999 -9.15527
49.9883999999997 -9.10645
50.0807999999999 -9.15527
50.1731999999997 -9.05762
50.2655999999999 -9.30176
50.3579999999997 -9.39941
50.4503999999999 -9.15527
50.5427999999997 -9.30176
50.6351999999999 -9.35059
50.7275999999997 -9.30176
50.8199999999999 -9.25293
50.9123999999996 -9.30176
51.0047999999998 -9.15527
51.0971999999996 -9.30176
51.1895999999998 -8.95996
51.2819999999996 -9.10645
51.3743999999998 -9.25293
51.4667999999996 -9.35059
51.5591999999998 -9.39941
51.6515999999996 -9.15527
51.7439999999998 -9.2041
51.8364 -9.35059
51.9287999999998 -9.25293
52.0212 -9.44824
52.1135999999998 -9.2041
52.206 -9.05762
52.2983999999997 -9.15527
52.3908 -9.30176
52.4831999999997 -9.15527
52.5755999999999 -9.25293
52.6679999999997 -9.25293
52.7603999999999 -9.30176
52.8527999999997 -9.44824
52.9451999999999 -9.44824
53.0375999999997 -9.30176
53.1299999999999 -9.35059
53.2223999999997 -9.30176
53.3147999999999 -9.30176
53.4071999999997 -9.39941
53.4995999999999 -9.00879
53.5919999999996 -9.2041
53.6843999999999 -9.05762
53.7767999999996 -9.25293
53.8691999999998 -9.2041
53.9615999999996 -9.30176
54.0539999999998 -9.15527
54.1463999999996 -9.15527
54.2387999999998 -9.44824
54.3311999999996 -9.05762
54.4235999999998 -9.30176
54.516 -9.10645
54.6083999999998 -9.25293
54.7008 -9.00879
54.7931999999998 -8.95996
54.8856 -9.10645
54.9779999999998 -9.15527
55.0704 -9.05762
55.1627999999997 -9.30176
55.2551999999999 -9.30176
55.3475999999997 -9.35059
55.4399999999999 -9.00879
55.5323999999997 -9.30176
55.6247999999999 -9.35059
55.7171999999997 -9.25293
55.8095999999999 -9.10645
55.9019999999997 -9.10645
55.9943999999999 -9.05762
56.0867999999997 -9.00879
56.1791999999999 -8.95996
56.2715999999996 -8.95996
56.3639999999999 -8.95996
56.4563999999996 -9.10645
56.5487999999998 -9.10645
56.6411999999996 -9.10645
56.7335999999998 -9.10645
56.8259999999996 -9.10645
56.9183999999998 -9.00879
57.0107999999996 -9.00879
57.1031999999998 -9.10645
57.1956 -9.10645
57.2879999999998 -9.00879
57.3804 -8.91113
57.4727999999998 -9.10645
57.5652 -9.00879
57.6575999999998 -9.10645
57.75 -9.10645
57.8423999999997 -9.15527
57.9348 -9.25293
58.0271999999997 -9.2041
58.1195999999999 -9.30176
58.2119999999997 -9.10645
58.3043999999999 -9.2041
58.3967999999997 -9.25293
58.4891999999999 -9.10645
58.5815999999997 -9.10645
58.6739999999999 -9.15527
58.7663999999997 -9.00879
58.8587999999999 -9.00879
58.9511999999996 -9.15527
59.0435999999999 -9.15527
59.1359999999996 -9.10645
59.2283999999999 -9.25293
59.3207999999996 -9.30176
59.4131999999998 -9.30176
59.5055999999996 -9.2041
59.5979999999998 -9.30176
59.6903999999996 -9.2041
59.7827999999998 -9.35059
59.8752 -9.15527
59.9675999999998 -9.00879
60.06 -9.05762
60.1523999999998 -9.05762
60.2448 -9.15527
60.3371999999998 -9.30176
60.4296 -9.30176
60.5219999999997 -9.30176
60.6144 -9.25293
60.7067999999997 -9.30176
60.7991999999999 -9.30176
60.8915999999997 -9.25293
60.9839999999999 -9.15527
61.0763999999997 -9.30176
61.1687999999999 -9.25293
61.2611999999997 -9.15527
61.3535999999999 -9.10645
61.4459999999997 -9.2041
61.5383999999999 -9.15527
61.6307999999997 -9.30176
61.7231999999999 -9.25293
61.8155999999996 -9.35059
61.9079999999999 -9.30176
62.0003999999996 -9.30176
62.0927999999998 -9.25293
62.1851999999996 -9.30176
62.2775999999998 -9.35059
62.3699999999996 -9.30176
62.4623999999998 -9.10645
62.5547999999996 -8.91113
62.6471999999998 -9.10645
62.7396 -9.10645
62.8319999999998 -9.25293
62.9244 -9.05762
63.0167999999998 -9.15527
63.1092 -9.30176
63.2015999999997 -9.25293
63.294 -9.30176
63.3863999999997 -9.30176
63.4787999999999 -9.25293
63.5711999999997 -9.2041
63.6635999999999 -9.10645
63.7559999999997 -9.15527
63.8483999999999 -9.00879
63.9407999999997 -9.10645
64.0331999999999 -9.30176
64.1255999999997 -9.15527
64.2179999999999 -9.30176
64.3103999999997 -9.2041
64.4027999999999 -9.30176
64.4951999999996 -9.15527
64.5875999999999 -9.30176
64.6799999999996 -9.2041
64.7723999999998 -9.30176
64.8647999999996 -9.15527
64.9571999999998 -8.95996
65.0495999999996 -8.71582
65.1419999999998 -8.76465
65.2343999999996 -8.95996
65.3267999999998 -8.95996
65.4192 -9.10645
65.5115999999998 -9.00879
65.604 -9.15527
65.6963999999998 -9.30176
65.7888 -9.2041
65.8811999999998 -9.15527
65.9736 -9.15527
66.0659999999997 -9.00879
66.1583999999999 -9.10645
66.2507999999997 -8.95996
66.3431999999999 -9.15527
66.4355999999997 -9.05762
66.5279999999999 -8.91113
66.6203999999997 -9.15527
66.7127999999999 -9.25293
66.8051999999997 -9.2041
66.8975999999999 -9.25293
66.9899999999997 -9.35059
67.0823999999999 -9.2041
67.1747999999996 -9.25293
67.2671999999999 -9.2041
67.3595999999996 -9.30176
67.4519999999998 -9.25293
67.5443999999996 -9.10645
67.6367999999998 -9.05762
67.7291999999996 -8.95996
67.8215999999998 -9.25293
67.9139999999996 -9.00879
68.0063999999998 -9.15527
68.0988 -9.30176
68.1911999999998 -9.30176
68.2836 -9.30176
68.3759999999998 -9.2041
68.4684 -9.30176
68.5607999999998 -9.35059
68.6532 -9.25293
68.7455999999997 -9.2041
68.838 -9.15527
68.9303999999997 -9.2041
69.0227999999999 -9.05762
69.1151999999997 -8.95996
69.2075999999999 -9.10645
69.2999999999997 -9.35059
69.3923999999999 -9.39941
69.4847999999997 -9.44824
69.5771999999999 -9.39941
69.6695999999997 -9.25293
69.7619999999999 -9.30176
69.8543999999997 -9.30176
69.9467999999999 -9.00879
70.0391999999996 -9.2041
70.1315999999998 -9.10645
