% This file was created with tikzplotlib v0.10.1.
% Dette er eksempel data
\begin{tikzpicture}

\definecolor{darkgray176}{RGB}{176,176,176}
\definecolor{darkorange25512714}{RGB}{255,127,14}
\definecolor{steelblue31119180}{RGB}{31,119,180}

\begin{axis}[
tick align=outside,
tick pos=left,
title={Hastighet P-regulator},
legend pos=south east,
height=\figH,
width=\figW,
x grid style={darkgray176},
xlabel={Tid [ms]},
xmin=-11.54538, xmax=242.45298,
xtick style={color=black},
xtick={-50,0,50,100,150,200,250},
xticklabels={
  \(\displaystyle {\ensuremath{-}50}\),
  \(\displaystyle {0}\),
  \(\displaystyle {50}\),
  \(\displaystyle {100}\),
  \(\displaystyle {150}\),
  \(\displaystyle {200}\),
  \(\displaystyle {250}\)
},
y grid style={darkgray176},
ylabel={Spenning [V]},
ymin=-10.231936, ymax=10.231936,
ytick style={color=black},
ytick={-12.5,-10,-7.5,-5,-2.5,0,2.5,5,7.5,10,12.5},
yticklabels={
  \(\displaystyle {\ensuremath{-}12.5}\),
  \(\displaystyle {\ensuremath{-}10.0}\),
  \(\displaystyle {\ensuremath{-}7.5}\),
  \(\displaystyle {\ensuremath{-}5.0}\),
  \(\displaystyle {\ensuremath{-}2.5}\),
  \(\displaystyle {0.0}\),
  \(\displaystyle {2.5}\),
  \(\displaystyle {5.0}\),
  \(\displaystyle {7.5}\),
  \(\displaystyle {10.0}\),
  \(\displaystyle {12.5}\)
}
]
\legend{$\omega_m$, $\omega_d$}
\addplot [semithick, steelblue31119180]
table {%
0 -8.42285
0.2772000000002 -8.37402
0.554400000000399 -8.22754
0.83159999999971 -8.47168
1.10879999999991 -8.42285
1.38600000000011 -8.42285
1.66320000000031 -8.37402
1.94039999999962 -8.12988
2.21759999999982 -8.22754
2.49480000000002 -8.47168
2.77200000000022 -8.37402
3.04919999999953 -8.47168
3.32639999999973 -8.22754
3.60359999999993 -8.42285
3.88080000000013 -8.3252
4.15800000000033 -8.61816
4.43519999999964 -8.3252
4.71239999999984 -8.27637
4.98960000000004 -8.37402
5.26680000000024 -8.47168
5.54399999999955 -8.52051
5.82119999999975 -8.42285
6.09839999999995 -8.3252
6.37560000000015 -8.12988
6.65280000000035 -8.37402
6.92999999999966 -8.42285
7.20719999999986 -8.37402
7.48440000000006 -8.3252
7.76160000000026 -8.17871
8.03879999999957 -8.37402
8.31599999999977 -8.37402
8.59319999999997 -8.42285
8.87040000000017 -8.42285
9.14760000000037 -8.42285
9.42479999999968 -8.52051
9.70199999999988 -8.47168
9.97920000000008 -8.22754
10.2564000000003 -8.3252
10.5335999999996 -8.37402
10.8107999999998 -8.42285
11.088 -8.47168
11.3652000000002 -8.61816
11.6424000000004 -8.22754
11.9195999999997 -8.17871
12.1967999999999 -8.27637
12.4740000000001 -8.42285
12.7512000000003 -8.3252
13.0283999999996 -8.42285
13.3055999999998 -8.27637
13.5828 -8.42285
13.8600000000002 -8.37402
14.1371999999995 -8.61816
14.4143999999997 -8.3252
14.6915999999999 -8.22754
14.9688000000001 -8.42285
15.2460000000003 -8.47168
15.5231999999996 -8.42285
15.8003999999998 -8.47168
16.0776 -8.22754
16.3548000000002 -8.42285
16.6319999999995 -8.56934
16.9091999999997 -8.3252
17.1863999999999 -8.37402
17.4636000000001 -8.3252
17.7408000000003 -8.27637
18.0179999999996 -8.47168
18.2951999999998 -8.3252
18.5724 -8.47168
18.8496000000002 -8.17871
19.1267999999996 -8.42285
19.4039999999998 -8.37402
19.6812 -8.42285
19.9584000000002 -8.22754
20.2356000000004 -8.12988
20.5127999999997 -8.42285
20.7899999999999 -8.61816
21.0672000000001 -8.52051
21.3444000000003 -8.47168
21.6215999999996 -8.08105
21.8987999999998 -8.12988
22.176 -8.3252
22.4532000000002 -8.22754
22.7304000000004 -8.3252
23.0075999999997 -8.37402
23.2847999999999 -8.17871
23.5620000000001 -8.3252
23.8392000000003 -8.22754
24.1163999999996 -8.42285
24.3935999999998 -8.27637
24.6708 -8.17871
24.9480000000002 -8.3252
25.2252000000004 -8.61816
25.5023999999997 -8.27637
25.7795999999999 -8.42285
26.0568000000001 -8.27637
26.3340000000003 -8.47168
26.6111999999996 -8.52051
26.8883999999998 -8.37402
27.1656 -8.22754
27.4428000000002 -8.42285
27.7199999999995 -8.42285
27.9971999999997 -8.42285
28.2743999999999 -8.37402
28.5516000000001 -8.42285
28.8288000000003 -8.42285
29.1059999999996 -8.27637
29.3831999999998 -8.52051
29.6604 -8.27637
29.9376000000002 -8.3252
30.2147999999995 -8.42285
30.4919999999997 -8.42285
30.7691999999999 -8.42285
31.0464000000001 -8.3252
31.3236000000003 -8.56934
31.6007999999997 -8.03223
31.8779999999999 -8.42285
32.1552000000001 -8.22754
32.4324000000002 -8.22754
32.7095999999996 -8.08105
32.9867999999998 -8.42285
33.264 -8.42285
33.5412000000002 -8.42285
33.8184000000004 -8.47168
34.0955999999997 -8.52051
34.3727999999999 -8.3252
34.6500000000001 -8.47168
34.9272000000003 -8.3252
35.2043999999996 -8.56934
35.4815999999998 -8.37402
35.7588 -8.37402
36.0360000000002 -8.3252
36.3132000000004 -8.61816
36.5903999999997 -8.3252
36.8675999999999 -8.27637
37.1448000000001 -8.22754
37.4220000000003 -8.42285
37.6991999999996 -8.56934
37.9763999999998 -8.56934
38.2536 -8.42285
38.5308000000002 -8.12988
38.8080000000004 -8.37402
39.0851999999997 -8.42285
39.3623999999999 -8.27637
39.6396000000001 -8.3252
39.9168000000003 -8.22754
40.1939999999996 -8.47168
40.4711999999998 -8.42285
40.7484 -8.42285
41.0256000000002 -8.22754
41.3027999999995 -7.93457
41.5799999999997 -8.37402
41.8571999999999 -8.42285
42.1344000000001 -8.52051
42.4116000000003 -8.22754
42.6887999999996 -8.22754
42.9659999999998 -8.42285
43.2432 -8.52051
43.5204000000002 -8.37402
43.7975999999995 -8.37402
44.0747999999997 -8.27637
44.3519999999999 -8.3252
44.6292000000001 -8.61816
44.9064000000003 -8.52051
45.1835999999997 -8.66699
45.4607999999999 -8.3252
45.7380000000001 -8.22754
46.0152000000003 -8.37402
46.2923999999996 -8.3252
46.5695999999998 -8.42285
46.8468 -8.56934
47.1240000000002 -8.52051
47.4012000000004 -8.42285
47.6783999999997 -8.3252
47.9555999999999 -8.42285
48.2328000000001 -8.08105
48.5100000000003 -8.3252
48.7871999999996 -8.37402
49.0643999999998 -8.42285
49.3416 -8.37402
49.6188000000002 -8.3252
49.8960000000004 -8.42285
50.1731999999997 -8.81348
50.4503999999999 -8.52051
50.7276000000001 -8.22754
51.0048000000003 -8.27637
51.2819999999996 -8.22754
51.5591999999998 -8.22754
51.8364 -8.42285
52.1136000000002 -8.3252
52.3907999999995 -8.17871
52.6679999999997 -8.22754
52.9451999999999 -8.42285
53.2224000000001 -8.47168
53.4996000000003 -8.27637
53.7767999999996 -8.27637
54.0539999999998 -8.27637
54.3312 -8.37402
54.6084000000002 -8.61816
54.8855999999995 -8.27637
55.1627999999997 -8.37402
55.4399999999999 -8.08105
55.7172000000001 -8.37402
55.9944000000003 -8.3252
56.2715999999996 -8.47168
56.5487999999998 -8.3252
56.826 -8.22754
57.1032000000002 -8.37402
57.3803999999996 -8.61816
57.6575999999998 -8.37402
57.9348 -8.47168
58.2120000000002 -8.27637
58.4892000000004 -8.52051
58.7663999999997 -8.37402
59.0435999999999 -8.42285
59.3208000000001 -8.27637
59.5980000000003 -8.12988
59.8751999999996 -8.42285
60.1523999999998 -8.3252
60.4296 -8.42285
60.7068000000002 -8.42285
60.9840000000004 -8.17871
61.2611999999997 -8.27637
61.5383999999999 -8.42285
61.8156000000001 -8.42285
62.0928000000003 -8.22754
62.3699999999996 -8.22754
62.6471999999998 -8.3252
62.9244 -8.42285
63.2016000000002 -8.27637
63.4788000000004 -8.42285
63.7559999999997 -8.3252
64.0331999999999 -8.37402
64.3104000000001 -8.42285
64.5876000000003 -8.42285
64.8647999999996 -8.27637
65.1419999999998 -8.42285
65.4192 -8.42285
65.6964000000002 -8.47168
65.9735999999995 -8.3252
66.2507999999997 -8.42285
66.5279999999999 -8.22754
66.8052000000001 -8.42285
67.0824000000003 -8.42285
67.3595999999996 -8.56934
67.6367999999998 -8.37402
67.914 -8.3252
68.1912000000002 -8.42285
68.4683999999995 -8.42285
68.7455999999997 -8.37402
69.0227999999999 -8.47168
69.3000000000001 -8.27637
69.5772000000003 -8.47168
69.8543999999997 -8.42285
70.1315999999998 -8.37402
70.4088 -8.47168
70.6860000000002 -8.22754
70.9631999999996 -8.22754
71.2403999999998 -8.52051
71.5176 -8.3252
71.7948000000002 -8.17871
72.0720000000004 -8.12988
72.3491999999997 -8.42285
72.6263999999999 -8.27637
72.9036000000001 -8.52051
73.1808000000003 -8.37402
73.4579999999996 -8.42285
73.7351999999998 -8.37402
74.0124 -8.47168
74.2896000000002 -8.22754
74.5668000000004 -8.47168
74.8439999999997 -8.12988
75.1211999999999 -8.42285
75.3984000000001 -8.42285
75.6756000000003 -8.52051
75.9527999999996 -8.37402
76.2299999999998 -8.37402
76.5072 -8.22754
76.7844000000002 -8.56934
77.0616000000004 -8.47168
77.3387999999997 -8.47168
77.6159999999999 -8.08105
77.8932000000001 -8.22754
78.1704000000003 -8.52051
78.4475999999996 -8.61816
78.7247999999998 -8.37402
79.002 -8.22754
79.2792000000002 -8.08105
79.5563999999995 -8.03223
79.8335999999997 -7.93457
80.1107999999999 -7.88574
80.3880000000001 -7.59277
80.6652000000003 -7.34863
80.9423999999996 -7.34863
81.2195999999998 -7.20215
81.4968 -7.15332
81.7740000000002 -7.25098
82.0511999999995 -6.90918
82.3283999999997 -6.81152
82.6056 -6.81152
82.8828000000001 -6.66504
83.1600000000003 -6.7627
83.4371999999996 -6.46973
83.7143999999999 -6.4209
83.9916000000001 -6.0791
84.2688000000003 -6.22559
84.5459999999996 -6.12793
84.8231999999998 -6.03027
85.1004 -5.88379
85.3776000000002 -5.78613
85.6548000000004 -5.83496
85.9319999999997 -5.49316
86.2091999999999 -5.34668
86.4864000000001 -5.29785
86.7636000000003 -5.2002
87.0407999999996 -5.24902
87.3179999999998 -5.00488
87.5952 -5.00488
87.8724000000002 -4.8584
88.1496000000004 -4.8584
88.4267999999997 -4.76074
88.7039999999999 -4.71191
88.9812000000001 -4.41895
89.2584000000003 -4.37012
89.5355999999996 -4.27246
89.8127999999998 -4.22363
90.09 -4.12598
90.3672000000002 -4.22363
90.6443999999995 -3.88184
90.9215999999997 -3.78418
91.1987999999999 -3.6377
91.4760000000001 -3.73535
91.7532000000003 -3.49121
92.0303999999996 -3.34473
92.3075999999998 -3.34473
92.5848 -3.19824
92.8620000000002 -3.00293
93.1391999999995 -2.90527
93.4163999999997 -2.75879
93.6935999999999 -2.80762
93.9708000000001 -2.56348
94.2480000000003 -2.51465
94.5251999999996 -2.36816
94.8023999999998 -2.17285
95.0796 -2.22168
95.3568000000002 -2.17285
95.6339999999996 -1.97754
95.9111999999998 -1.92871
96.1883999999999 -1.78223
96.4656000000002 -1.78223
96.7428000000004 -1.53809
97.0199999999997 -1.48926
97.2971999999999 -1.48926
97.5744000000001 -1.34277
97.8516000000003 -1.29395
98.1287999999996 -1.24512
98.4059999999998 -1.00098
98.6832 -0.952148
98.9604000000002 -0.952148
99.2376000000004 -0.708008
99.5147999999997 -0.65918
99.7919999999999 -0.512695
100.0692 -0.561523
100.3464 -0.268555
100.6236 -0.268555
100.9008 -0.12207
101.178 -0.0732422
101.4552 0.12207
101.7324 0.170898
102.0096 0.415039
102.2868 0.366211
102.564 0.366211
102.8412 0.561523
103.1184 0.708008
103.3956 0.805664
103.6728 0.805664
103.95 0.854492
104.2272 1.19629
104.5044 1.29395
104.7816 1.29395
105.0588 1.44043
105.336 1.44043
105.6132 1.44043
105.8904 1.58691
106.1676 1.7334
106.4448 1.83105
106.722 1.83105
106.9992 1.97754
107.2764 1.97754
107.5536 1.97754
107.8308 2.31934
108.108 2.41699
108.3852 2.36816
108.6624 2.51465
108.9396 2.6123
109.2168 2.66113
109.494 2.85645
109.7712 2.85645
110.0484 2.85645
110.3256 3.10059
110.6028 2.9541
110.88 3.14941
111.1572 3.19824
111.4344 3.39355
111.7116 3.44238
111.9888 3.54004
112.266 3.6377
112.5432 3.6377
112.8204 3.93066
113.0976 3.83301
113.3748 4.02832
113.652 4.12598
113.9292 4.07715
114.2064 4.1748
114.4836 4.22363
114.7608 4.27246
115.038 4.22363
115.3152 4.46777
115.5924 4.5166
115.8696 4.56543
116.1468 4.76074
116.424 4.90723
116.7012 4.71191
116.9784 4.66309
117.2556 4.80957
117.5328 4.95605
117.81 5.05371
118.0872 5.10254
118.3644 5.2002
118.6416 5.34668
118.9188 5.24902
119.196 5.34668
119.4732 5.34668
119.7504 5.44434
120.0276 5.49316
120.3048 5.63965
120.582 5.59082
120.8592 5.88379
121.1364 5.7373
121.4136 5.7373
121.6908 5.63965
121.968 5.7373
122.2452 5.88379
122.5224 5.93262
122.7996 6.03027
123.0768 6.12793
123.354 5.98145
123.6312 6.12793
123.9084 6.17676
124.1856 6.27441
124.4628 6.37207
124.74 6.46973
125.0172 6.37207
125.2944 6.37207
125.5716 6.32324
125.8488 6.46973
126.126 6.51855
126.4032 6.66504
126.6804 6.7627
126.9576 6.66504
127.2348 6.51855
127.512 6.81152
127.7892 6.7627
128.0664 7.00684
128.3436 6.86035
128.6208 7.10449
128.898 6.61621
129.1752 6.7627
129.4524 6.86035
129.7296 7.20215
130.0068 7.05566
130.284 6.95801
130.5612 6.95801
130.8384 7.10449
131.1156 7.10449
131.3928 7.15332
131.67 7.34863
131.9472 7.34863
132.2244 7.15332
132.5016 7.44629
132.7788 7.34863
133.056 7.25098
133.3332 7.44629
133.6104 7.34863
133.8876 7.39746
134.1648 7.34863
134.442 7.54395
134.7192 7.54395
134.9964 7.54395
135.2736 7.54395
135.5508 7.54395
135.828 7.78809
136.1052 7.73926
136.3824 7.88574
136.6596 7.78809
136.9368 7.78809
137.214 7.73926
137.4912 7.78809
137.7684 7.83691
138.0456 7.9834
138.3228 7.73926
138.6 7.83691
138.8772 8.03223
139.1544 8.3252
139.4316 8.08105
139.7088 7.9834
139.986 8.12988
140.2632 8.12988
140.5404 8.03223
140.8176 8.22754
141.0948 8.12988
141.372 7.9834
141.6492 8.12988
141.9264 8.22754
142.2036 8.3252
142.4808 8.22754
142.758 8.08105
143.0352 8.12988
143.3124 8.12988
143.5896 8.22754
143.8668 8.27637
144.144 8.22754
144.4212 8.08105
144.6984 8.42285
144.9756 8.22754
145.2528 8.37402
145.53 8.3252
145.8072 8.17871
146.0844 8.52051
146.3616 8.56934
146.6388 8.42285
146.916 8.42285
147.1932 8.3252
147.4704 8.3252
147.7476 8.42285
148.0248 8.37402
148.302 8.22754
148.5792 8.3252
148.8564 8.37402
149.1336 8.52051
149.4108 8.3252
149.688 8.22754
149.9652 8.22754
150.2424 8.42285
150.5196 8.37402
150.7968 8.42285
151.074 8.3252
151.3512 8.17871
151.6284 8.22754
151.9056 8.52051
152.1828 8.3252
152.46 8.3252
152.7372 8.27637
153.0144 8.42285
153.2916 8.56934
153.5688 8.37402
153.846 8.3252
154.1232 8.3252
154.4004 8.3252
154.6776 8.56934
154.9548 8.52051
155.232 8.37402
155.5092 8.3252
155.7864 8.27637
156.0636 8.52051
156.3408 8.3252
156.618 8.47168
156.8952 8.22754
157.1724 8.22754
157.4496 8.37402
157.7268 8.42285
158.004 8.37402
158.2812 8.27637
158.5584 8.52051
158.8356 8.61816
159.1128 8.42285
159.39 8.42285
159.6672 8.47168
159.9444 8.08105
160.2216 8.42285
160.4988 8.56934
160.776 8.47168
161.0532 8.22754
161.3304 8.3252
161.6076 8.37402
161.8848 8.52051
162.162 8.37402
162.4392 8.3252
162.7164 8.22754
162.9936 8.22754
163.2708 8.42285
163.548 8.47168
163.8252 8.17871
164.1024 8.12988
164.3796 8.17871
164.6568 8.42285
164.934 8.37402
165.2112 8.27637
165.4884 8.08105
165.7656 8.52051
166.0428 8.52051
166.32 8.61816
166.5972 8.37402
166.8744 8.22754
167.1516 8.37402
167.4288 8.27637
167.706 8.42285
167.9832 8.37402
168.2604 8.12988
168.5376 8.27637
168.8148 8.22754
169.092 8.42285
169.3692 8.37402
169.6464 8.22754
169.9236 8.37402
170.2008 8.47168
170.478 8.3252
170.7552 8.27637
171.0324 8.37402
171.3096 8.42285
171.5868 8.47168
171.864 8.52051
172.1412 8.37402
172.4184 8.17871
172.6956 8.37402
172.9728 8.47168
173.25 8.42285
173.5272 8.47168
173.8044 8.22754
174.0816 8.17871
174.3588 8.42285
174.636 8.37402
174.9132 8.27637
175.1904 8.3252
175.4676 8.27637
175.7448 8.61816
176.022 8.42285
176.2992 8.56934
176.5764 8.37402
176.8536 8.12988
177.1308 8.37402
177.408 8.3252
177.6852 8.37402
177.9624 8.42285
178.2396 8.52051
178.5168 8.52051
178.794 8.3252
179.0712 8.42285
179.3484 8.12988
179.6256 8.17871
179.9028 8.3252
180.18 8.47168
180.4572 8.37402
180.7344 8.27637
181.0116 8.3252
181.2888 8.42285
181.566 8.42285
181.8432 8.47168
182.1204 8.37402
182.3976 8.17871
182.6748 8.42285
182.952 8.47168
183.2292 8.42285
183.5064 8.27637
183.7836 8.03223
184.0608 8.27637
184.338 8.27637
184.6152 8.42285
184.8924 8.37402
185.1696 8.22754
185.4468 8.42285
185.724 8.56934
186.0012 8.61816
186.2784 8.47168
186.5556 8.22754
186.8328 8.47168
187.11 8.17871
187.3872 8.42285
187.6644 8.37402
187.9416 8.17871
188.2188 8.3252
188.496 8.3252
188.7732 8.3252
189.0504 8.47168
189.3276 8.37402
189.6048 8.22754
189.882 8.52051
190.1592 8.37402
190.4364 8.37402
190.7136 8.22754
190.9908 8.3252
191.268 8.3252
191.5452 8.37402
191.8224 8.3252
192.0996 8.12988
192.3768 8.37402
192.654 8.27637
192.9312 8.47168
193.2084 8.52051
193.4856 8.22754
193.7628 8.22754
194.04 8.27637
194.3172 8.37402
194.5944 8.37402
194.8716 8.17871
195.1488 8.42285
195.426 8.52051
195.7032 8.56934
195.9804 8.3252
196.2576 8.37402
196.5348 8.27637
196.812 8.3252
197.0892 8.42285
197.3664 8.42285
197.6436 8.37402
197.9208 8.27637
198.198 8.42285
198.4752 8.47168
198.7524 8.52051
199.0296 8.47168
199.3068 8.12988
199.584 8.42285
199.8612 8.3252
200.1384 8.42285
200.4156 8.27637
200.6928 8.22754
200.97 8.37402
201.2472 8.56934
201.5244 8.37402
201.8016 8.27637
202.0788 8.22754
202.356 8.37402
202.6332 8.42285
202.9104 8.42285
203.1876 8.37402
203.4648 8.22754
203.742 8.37402
204.0192 8.42285
204.2964 8.42285
204.5736 8.37402
204.8508 8.22754
205.128 8.42285
205.4052 8.42285
205.6824 8.56934
205.9596 8.52051
206.2368 8.27637
206.514 8.37402
206.7912 8.37402
207.0684 8.47168
207.3456 8.27637
207.6228 8.17871
207.9 8.47168
208.1772 8.37402
208.4544 8.37402
208.7316 8.42285
209.0088 8.17871
209.286 8.17871
209.5632 8.37402
209.8404 8.52051
210.1176 8.42285
210.3948 8.52051
210.672 8.12988
210.9492 8.37402
211.2264 8.27637
211.5036 8.42285
211.7808 8.12988
212.058 8.37402
212.3352 8.42285
212.6124 8.3252
212.8896 8.52051
213.1668 8.22754
213.444 8.17871
213.7212 8.27637
213.9984 8.42285
214.2756 8.37402
214.5528 8.37402
214.83 8.3252
215.1072 8.42285
215.3844 8.56934
215.6616 8.42285
215.9388 8.27637
216.216 8.22754
216.4932 8.37402
216.7704 8.56934
217.0476 8.37402
217.3248 8.22754
217.602 8.27637
217.8792 8.47168
218.1564 8.52051
218.4336 8.42285
218.7108 8.3252
218.988 8.3252
219.2652 8.17871
219.5424 8.37402
219.8196 8.3252
220.0968 8.42285
220.374 8.27637
220.6512 8.42285
220.9284 8.47168
221.2056 8.42285
221.4828 8.3252
221.76 8.17871
222.0372 8.12988
222.3144 8.42285
222.5916 8.66699
222.8688 8.37402
223.146 8.08105
223.4232 8.27637
223.7004 8.17871
223.9776 8.27637
224.2548 8.27637
224.532 8.22754
224.8092 8.22754
225.0864 8.56934
225.3636 8.61816
225.6408 8.66699
225.918 8.17871
226.1952 8.27637
226.4724 8.42285
226.7496 8.47168
227.0268 8.42285
227.304 8.12988
227.5812 8.22754
227.8584 8.42285
228.1356 8.3252
228.4128 8.27637
228.69 8.22754
228.9672 8.3252
229.2444 8.42285
229.5216 8.56934
229.7988 8.37402
230.076 8.27637
230.3532 8.12988
230.6304 8.42285
230.9076 8.42285
};
\addplot [semithick, darkorange25512714]
table {%
0 -8.95996
0.2772000000002 -9.05762
0.554400000000399 -9.10645
0.83159999999971 -9.30176
1.10879999999991 -9.2041
1.38600000000011 -9.15527
1.66320000000031 -9.05762
1.94039999999962 -8.95996
2.21759999999982 -9.2041
2.49480000000002 -9.2041
2.77200000000022 -8.95996
3.04919999999953 -9.05762
3.32639999999973 -8.95996
3.60359999999993 -9.15527
3.88080000000013 -9.2041
4.15800000000033 -9.30176
4.43519999999964 -8.95996
4.71239999999984 -9.25293
4.98960000000004 -9.10645
5.26680000000024 -9.10645
5.54399999999955 -9.00879
5.82119999999975 -9.10645
6.09839999999995 -9.10645
6.37560000000015 -9.15527
6.65280000000035 -9.10645
6.92999999999966 -9.05762
7.20719999999986 -9.10645
7.48440000000006 -9.15527
7.76160000000026 -9.10645
8.03879999999957 -9.2041
8.31599999999977 -8.95996
8.59319999999997 -9.15527
8.87040000000017 -8.95996
9.14760000000037 -9.05762
9.42479999999968 -9.10645
9.70199999999988 -9.15527
9.97920000000008 -9.25293
10.2564000000003 -9.15527
10.5335999999996 -9.25293
10.8107999999998 -9.2041
11.088 -9.10645
11.3652000000002 -9.10645
11.6424000000004 -9.00879
11.9195999999997 -9.10645
12.1967999999999 -9.10645
12.4740000000001 -9.2041
12.7512000000003 -9.15527
13.0283999999996 -9.10645
13.3055999999998 -8.95996
13.5828 -9.2041
13.8600000000002 -9.05762
14.1371999999995 -9.00879
14.4143999999997 -9.00879
14.6915999999999 -9.05762
14.9688000000001 -9.10645
15.2460000000003 -8.95996
15.5231999999996 -9.05762
15.8003999999998 -9.2041
16.0776 -9.10645
16.3548000000002 -9.15527
16.6319999999995 -9.05762
16.9091999999997 -9.2041
17.1863999999999 -9.10645
17.4636000000001 -9.10645
17.7408000000003 -9.10645
18.0179999999996 -9.25293
18.2951999999998 -9.10645
18.5724 -9.25293
