% This file was created with tikzplotlib v0.10.1.
\begin{tikzpicture}

\definecolor{darkgray176}{RGB}{176,176,176}
\definecolor{darkorange25512714}{RGB}{255,127,14}
\definecolor{steelblue31119180}{RGB}{31,119,180}

\begin{axis}[
tick align=outside,
tick pos=left,
title={Hastighet P-regulator},
x grid style={darkgray176},
xlabel={\(\displaystyle t\) [ms]},
xmin=-46.1769, xmax=969.714900000001,
xtick style={color=black},
xtick={-200,0,200,400,600,800,1000},
xticklabels={
  \(\displaystyle {\ensuremath{-}200}\),
  \(\displaystyle {0}\),
  \(\displaystyle {200}\),
  \(\displaystyle {400}\),
  \(\displaystyle {600}\),
  \(\displaystyle {800}\),
  \(\displaystyle {1000}\)
},
y grid style={darkgray176},
ylabel={\(\displaystyle V\) [V]},
ymin=-0.286132745, ymax=5.364255845,
ytick style={color=black},
ytick={-1,0,1,2,3,4,5,6},
yticklabels={
  \(\displaystyle {\ensuremath{-}1}\),
  \(\displaystyle {0}\),
  \(\displaystyle {1}\),
  \(\displaystyle {2}\),
  \(\displaystyle {3}\),
  \(\displaystyle {4}\),
  \(\displaystyle {5}\),
  \(\displaystyle {6}\)
}
]
\addplot [semithick, steelblue31119180]
table {%
0 1.14258
0.462000000000629 1.18164
0.924000000000369 1.12305
1.38600000000011 1.18164
1.84800000000074 1.18164
2.31000000000048 1.2207
2.77200000000022 1.16211
3.23400000000085 1.10352
3.69600000000059 1.2207
4.15800000000033 1.16211
4.62000000000007 1.20117
5.0820000000007 1.14258
5.54400000000044 1.14258
6.00600000000018 1.14258
6.46800000000081 1.14258
6.93000000000055 1.14258
7.39200000000029 1.14258
7.85400000000003 1.20117
8.31600000000066 1.12305
8.7780000000004 1.12305
9.24000000000014 1.20117
9.70200000000077 1.10352
10.1640000000005 1.2207
10.6260000000002 1.12305
11.0880000000009 1.14258
11.5500000000006 1.16211
12.0120000000004 1.2207
12.4740000000001 1.12305
12.9360000000007 1.20117
13.3980000000005 1.08398
13.8600000000002 1.20117
14.3220000000008 1.20117
14.7840000000006 1.12305
15.2460000000003 1.18164
15.7080000000001 1.16211
16.1700000000007 1.16211
16.6320000000004 1.16211
17.0940000000002 1.18164
17.5560000000008 1.14258
18.0180000000005 1.12305
18.4800000000003 1.14258
18.942 1.18164
19.4040000000006 1.2207
19.8660000000004 1.10352
20.3280000000001 1.20117
20.7900000000008 1.14258
21.2520000000005 1.14258
21.7140000000002 1.2207
22.1760000000009 1.2207
22.6380000000006 1.14258
23.1000000000003 1.10352
23.5620000000001 1.20117
24.0240000000007 1.20117
24.4860000000005 1.18164
24.9480000000002 1.18164
25.4100000000008 1.14258
25.8720000000006 1.14258
26.3340000000003 1.25977
26.796 1.2207
27.2580000000007 1.14258
27.7200000000004 1.25977
28.1820000000002 1.16211
28.6440000000008 1.12305
29.1060000000005 1.18164
29.5680000000003 1.14258
30.03 1.2207
30.4920000000006 1.16211
30.9540000000004 1.20117
31.4160000000001 1.14258
31.8780000000007 1.18164
32.3400000000005 1.14258
32.8020000000002 1.14258
33.2640000000008 1.20117
33.7260000000006 1.10352
34.1880000000003 1.16211
34.6500000000001 1.20117
35.1120000000007 1.10352
35.5740000000004 1.14258
36.0360000000002 1.14258
36.4980000000008 1.14258
36.9600000000005 1.06445
37.4220000000003 1.12305
37.884 1.20117
38.3460000000007 1.14258
38.8080000000004 1.20117
39.2700000000001 1.12305
39.7320000000008 1.16211
40.1940000000005 1.10352
40.6560000000002 1.16211
41.1180000000009 1.20117
41.5800000000006 1.2207
42.0420000000004 1.14258
42.5040000000001 1.18164
42.9660000000007 1.2207
43.4280000000005 1.10352
43.8900000000002 1.2207
44.3520000000008 1.20117
44.8140000000006 1.08398
45.2760000000003 1.14258
45.7380000000001 1.18164
46.2000000000007 1.16211
46.6620000000004 1.10352
47.1240000000002 1.10352
47.5860000000008 1.14258
48.0480000000005 1.2207
48.5100000000003 1.14258
48.972 1.14258
49.4340000000006 1.14258
49.8960000000004 1.20117
50.3580000000001 1.2207
50.8200000000008 1.20117
51.2820000000005 1.16211
51.7440000000002 1.14258
52.2060000000009 1.18164
52.6680000000006 1.18164
53.1300000000003 1.16211
53.5920000000001 1.18164
54.0540000000007 1.12305
54.5160000000005 1.20117
54.9780000000002 1.16211
55.4400000000008 1.20117
55.9020000000006 1.14258
56.3640000000003 1.18164
56.826 1.18164
57.2880000000007 1.18164
57.7500000000004 1.18164
58.2120000000002 1.16211
58.6740000000008 1.18164
59.1360000000005 1.12305
59.5980000000003 1.16211
60.06 1.14258
60.5220000000006 1.14258
60.9840000000004 1.10352
61.4460000000001 1.16211
61.9080000000007 1.20117
62.3700000000005 1.10352
62.8320000000002 1.14258
63.2940000000008 1.14258
63.7560000000006 1.20117
64.2180000000003 1.14258
64.6800000000001 1.14258
65.1420000000007 1.12305
65.6040000000004 1.10352
66.0660000000002 1.2207
66.5280000000008 1.14258
66.9900000000005 1.20117
67.4520000000003 1.14258
67.914 1.2207
68.3760000000007 1.08398
68.8380000000004 1.14258
69.3000000000001 1.18164
69.7620000000008 1.16211
70.2240000000005 1.20117
70.6860000000002 1.18164
71.1480000000009 1.16211
71.6100000000006 1.10352
72.0720000000004 1.20117
72.5340000000001 1.10352
72.9960000000007 1.2207
73.4580000000005 1.2207
73.9200000000002 1.14258
74.3820000000008 1.16211
74.8440000000006 1.14258
75.3060000000003 1.18164
75.7680000000001 1.25977
76.2300000000007 1.18164
76.6920000000004 1.16211
77.1540000000002 1.18164
77.6160000000008 1.14258
78.0780000000005 1.2207
78.5400000000003 1.14258
79.002 1.12305
79.4640000000007 1.14258
79.9260000000004 1.20117
80.3880000000001 1.2207
80.8500000000008 1.10352
81.3120000000005 1.16211
81.7740000000002 1.08398
82.2360000000009 1.14258
82.6980000000006 1.18164
83.1600000000003 1.2207
83.6220000000001 1.20117
84.0840000000007 1.2207
84.5460000000004 1.20117
85.0080000000002 1.20117
85.4700000000008 1.14258
85.9320000000006 1.20117
86.3940000000003 1.12305
86.8560000000001 1.14258
87.3180000000007 1.18164
87.7800000000004 1.16211
88.2420000000002 1.14258
88.7040000000008 1.18164
89.1660000000005 1.20117
89.6280000000003 1.20117
90.09 1.14258
90.5520000000006 1.18164
91.0140000000004 1.18164
91.4760000000001 1.18164
91.9380000000007 1.20117
92.4000000000005 1.24023
92.8620000000002 1.20117
93.3240000000009 1.14258
93.7860000000006 1.06445
94.2480000000003 1.16211
94.7100000000001 1.20117
95.1720000000007 1.12305
95.6340000000004 1.25977
96.0960000000002 1.2207
96.5580000000008 1.14258
97.0200000000006 1.14258
97.4820000000003 1.14258
97.944 1.16211
98.4060000000007 1.20117
98.8680000000004 1.20117
99.3300000000001 1.18164
99.7920000000008 1.20117
100.254000000001 1.18164
100.716 1.18164
101.178000000001 1.14258
101.640000000001 1.14258
102.102 1.14258
102.564 1.18164
103.026000000001 1.10352
103.488 1.14258
103.95 1.14258
104.412000000001 1.14258
104.874000000001 1.14258
105.336 1.16211
105.798 1.14258
106.260000000001 1.18164
106.722 1.14258
107.184 1.18164
107.646000000001 1.10352
108.108000000001 1.16211
108.57 1.10352
109.032 1.16211
109.494000000001 1.12305
109.956 1.14258
110.418 1.16211
110.880000000001 1.16211
111.342 1.10352
111.804 1.2207
112.266000000001 1.12305
112.728000000001 1.14258
113.19 1.16211
113.652 1.14258
114.114000000001 1.12305
114.576 1.20117
115.038 1.06445
115.500000000001 1.14258
115.962000000001 1.14258
116.424 1.20117
116.886 1.20117
117.348000000001 1.14258
117.81 1.20117
118.272 1.18164
118.734000000001 1.18164
119.196000000001 1.2207
119.658 1.18164
120.12 1.16211
120.582000000001 1.16211
121.044 1.12305
121.506 1.14258
121.968000000001 1.18164
122.43 1.18164
122.892 1.2207
123.354000000001 1.14258
123.816000000001 1.20117
124.278 1.10352
124.74 1.20117
125.202000000001 1.14258
125.664 1.18164
126.126 1.12305
126.588000000001 1.20117
127.050000000001 1.14258
127.512 1.2207
127.974 1.18164
128.436000000001 1.2207
128.898 1.16211
129.36 1.14258
129.822000000001 1.18164
130.284000000001 1.18164
130.746 1.10352
131.208000000001 1.14258
131.670000000001 1.14258
132.132 1.18164
132.594 1.16211
133.056000000001 1.2793
133.518 1.12305
133.98 1.14258
134.442000000001 1.12305
134.904000000001 1.18164
135.366 1.14258
135.828 1.2207
136.290000000001 1.14258
136.752 1.18164
137.214 1.10352
137.676000000001 1.14258
138.138000000001 1.14258
138.6 1.10352
139.062 1.16211
139.524000000001 1.14258
139.986 1.20117
140.448 1.20117
140.910000000001 1.12305
141.372 1.20117
141.834 1.14258
142.296000000001 1.14258
142.758000000001 1.18164
143.22 1.10352
143.682 1.16211
144.144000000001 1.14258
144.606 1.16211
145.068 1.16211
145.530000000001 1.08398
145.992000000001 1.20117
146.454 1.14258
146.916 1.18164
147.378000000001 1.14258
147.84 1.16211
148.302 1.20117
148.764000000001 1.18164
149.226000000001 1.20117
149.688 1.20117
150.15 1.2207
150.612000000001 1.14258
151.074 1.2207
151.536 1.12305
151.998000000001 1.14258
152.46 1.16211
152.922 1.20117
153.384000000001 1.14258
153.846000000001 1.18164
154.308 1.18164
154.77 1.14258
155.232000000001 1.18164
155.694 1.14258
156.156 1.2793
156.618000000001 1.2207
157.080000000001 1.14258
157.542 1.16211
158.004 1.12305
158.466000000001 1.18164
158.928 1.24023
159.39 1.16211
159.852000000001 1.18164
160.314000000001 1.20117
160.776 1.20117
161.238000000001 1.2207
161.700000000001 1.20117
162.162 1.10352
162.624 1.14258
163.086000000001 1.16211
163.548 1.16211
164.01 1.14258
164.472000000001 1.14258
164.934000000001 1.18164
165.396 1.14258
165.858 1.16211
166.320000000001 1.14258
166.782 1.2207
167.244 1.14258
167.706000000001 1.18164
168.168000000001 1.18164
168.63 1.20117
169.092 1.16211
169.554000000001 1.18164
170.016 1.14258
170.478 1.20117
170.940000000001 1.18164
171.402 1.14258
171.864 1.16211
172.326000000001 1.20117
172.788000000001 1.16211
173.25 1.20117
173.712 1.2207
174.174000000001 1.14258
174.636 1.18164
175.098 1.14258
175.560000000001 1.16211
176.022000000001 1.16211
176.484 1.14258
176.946 1.12305
177.408000000001 1.20117
177.87 1.18164
178.332 1.14258
178.794000000001 1.16211
179.256000000001 1.14258
179.718 1.20117
180.18 1.14258
180.642000000001 1.20117
181.104 1.14258
181.566 1.14258
182.028000000001 1.20117
182.49 1.18164
182.952 1.16211
183.414000000001 1.14258
183.876000000001 1.20117
184.338 1.16211
184.8 1.16211
185.262000000001 1.18164
185.724 1.16211
186.186 1.14258
186.648000000001 1.18164
187.110000000001 1.20117
187.572 1.16211
188.034 1.14258
188.496000000001 1.14258
188.958 1.16211
189.42 1.2207
189.882000000001 1.20117
190.344000000001 1.16211
190.806 1.16211
191.268 1.14258
191.730000000001 1.20117
192.192 1.14258
192.654 1.04492
193.116000000001 1.18164
193.578 1.16211
194.04 1.12305
194.502000000001 1.14258
194.964000000001 1.12305
195.426 1.14258
195.888 1.2207
196.350000000001 1.12305
196.812 1.2207
197.274 1.2207
197.736000000001 1.2207
198.198000000001 1.14258
198.66 1.2207
199.122 1.08398
199.584000000001 1.14258
200.046 1.2207
200.508 1.16211
200.970000000001 1.20117
201.432 1.12305
201.894 1.14258
202.356000000001 1.18164
202.818000000001 1.14258
203.28 1.16211
203.742 1.16211
204.204000000001 1.24023
204.666 1.14258
205.128 1.20117
205.590000000001 1.20117
206.052000000001 1.14258
206.514 1.2207
206.976 1.2207
207.438000000001 1.12305
207.9 1.18164
208.362 1.10352
208.824000000001 1.18164
209.286000000001 1.14258
209.748 1.14258
210.21 1.20117
210.672000000001 1.16211
211.134 1.18164
211.596 1.14258
212.058000000001 1.16211
212.52 1.14258
212.982 1.14258
213.444000000001 1.20117
213.906000000001 1.20117
214.368 1.14258
214.83 1.14258
215.292000000001 1.14258
215.754 1.18164
216.216 1.12305
216.678000000001 1.16211
217.140000000001 1.16211
217.602 1.14258
218.064 1.14258
218.526000000001 1.2207
218.988 1.20117
219.45 1.14258
219.912000000001 1.18164
220.374000000001 1.10352
220.836 1.18164
221.298 1.18164
221.760000000001 1.14258
222.222 1.12305
222.684 1.14258
223.146000000001 1.18164
223.608 1.18164
224.07 1.18164
224.532000000001 1.2207
224.994000000001 1.16211
225.456 1.14258
225.918 1.14258
226.380000000001 1.14258
226.842 1.18164
227.304 1.14258
227.766000000001 1.20117
228.228000000001 1.20117
228.69 1.16211
229.152 1.12305
229.614000000001 1.20117
230.076 1.16211
230.538 1.20117
231.000000000001 1.14258
231.462000000001 1.14258
231.924 1.16211
232.386000000001 1.2207
232.848000000001 1.18164
233.31 1.20117
233.772 1.14258
234.234000000001 1.16211
234.696 1.14258
235.158 1.2207
235.620000000001 1.20117
236.082000000001 1.14258
236.544 1.18164
237.006 1.20117
237.468000000001 1.20117
237.93 1.18164
238.392 1.2207
238.854000000001 1.14258
239.316000000001 1.14258
239.778 1.18164
240.24 1.20117
240.702000000001 1.12305
241.164 1.20117
241.626 1.12305
242.088000000001 1.20117
242.55 1.18164
243.012 1.14258
243.474000000001 1.20117
243.936000000001 1.20117
244.398 1.10352
244.86 1.16211
245.322000000001 1.18164
245.784 1.14258
246.246 1.06445
246.708000000001 1.14258
247.170000000001 1.14258
247.632 1.12305
248.094 1.16211
248.556000000001 1.14258
249.018 1.08398
249.48 1.16211
249.942000000001 1.14258
250.404000000001 1.18164
250.866 1.2207
251.328 1.10352
251.790000000001 1.10352
252.252 1.10352
252.714 1.12305
253.176000000001 1.16211
253.638 1.08398
254.1 1.12305
254.562000000001 1.20117
255.024000000001 1.14258
255.486 1.16211
255.948 1.20117
256.410000000001 1.2207
256.872 1.08398
257.334 1.10352
257.796000000001 1.14258
258.258000000001 1.20117
258.72 1.24023
259.182 1.20117
259.644000000001 1.18164
260.106 1.18164
260.568 1.18164
261.030000000001 1.14258
261.492000000001 1.16211
261.954 1.08398
262.416000000001 1.16211
262.878000000001 1.16211
263.34 1.2207
263.802 1.20117
264.264000000001 1.14258
264.726 1.20117
265.188 1.18164
265.650000000001 1.14258
266.112000000001 1.14258
266.574 1.14258
267.036 1.08398
267.498000000001 1.12305
267.96 1.20117
268.422 1.20117
268.884000000001 1.16211
269.346000000001 1.16211
269.808 1.10352
270.27 1.18164
270.732000000001 1.14258
271.194 1.20117
271.656 1.14258
272.118000000001 1.16211
272.58 1.18164
273.042 1.20117
273.504000000001 1.10352
273.966000000001 1.2793
274.428 1.16211
274.89 1.14258
275.352000000001 1.16211
275.814 1.12305
276.276 1.18164
276.738000000001 1.18164
277.200000000001 1.25977
277.662 1.20117
278.124 1.14258
278.586000000001 1.24023
279.048 1.14258
279.51 1.12305
279.972000000001 1.16211
280.434000000001 1.14258
280.896 1.24023
281.358 1.12305
281.820000000001 1.18164
282.282 1.14258
282.744 1.20117
283.206000000001 1.2207
283.668 1.2793
284.13 1.14258
284.592000000001 1.2207
285.054000000001 1.18164
285.516 1.2207
285.978 1.16211
286.440000000001 1.16211
286.902 1.14258
287.364 1.18164
287.826000000001 1.14258
288.288000000001 1.14258
288.75 1.16211
289.212 1.20117
289.674000000001 1.12305
290.136 1.18164
290.598 1.16211
291.060000000001 1.18164
291.522000000001 1.25977
291.984 1.20117
292.446000000001 1.16211
292.908000000001 1.14258
293.37 1.12305
293.832 1.16211
294.294000000001 1.14258
294.756 1.18164
295.218 1.14258
295.680000000001 1.2207
296.142000000001 1.16211
296.604 1.20117
297.066 1.2207
297.528000000001 1.14258
297.99 1.16211
298.452 1.12305
298.914000000001 1.12305
299.376000000001 1.14258
299.838 1.2207
300.3 1.10352
300.762000000001 1.14258
301.224 0.126953
301.686 -0.0292969
302.148000000001 0.107422
302.61 0.126953
303.072 0.126953
303.534000000001 0.0683594
303.996000000001 0.166016
304.458 0.146484
304.92 0.146484
305.382000000001 0.166016
305.844 0.224609
306.306 0.205078
306.768000000001 0.166016
307.230000000001 0.224609
307.692 0.205078
308.154 0.263672
308.616000000001 0.205078
309.078 0.322266
309.54 0.361328
310.002000000001 0.302734
310.464000000001 0.419922
310.926 0.400391
311.388 0.419922
311.850000000001 0.419922
312.312 0.556641
312.774 0.595703
313.236000000001 0.634766
313.698 0.712891
314.16 0.732422
314.622000000001 0.849609
315.084000000001 0.732422
315.546 0.849609
316.008 0.888672
316.470000000001 0.986328
316.932 0.966797
317.394 0.986328
317.856000000001 1.00586
318.318000000001 0.966797
318.78 1.10352
319.242 1.10352
319.704000000001 1.14258
320.166 1.20117
320.628 1.2207
321.090000000001 1.2207
321.552 1.2793
322.014 1.2793
322.476000000001 1.2793
322.938000000001 1.33789
323.4 1.31836
323.862 1.43555
324.324000000001 1.43555
324.786 1.47461
325.248 1.49414
325.710000000001 1.45508
326.172000000001 1.49414
326.634 1.51367
327.096 1.55273
327.558000000001 1.61133
328.02 1.63086
328.482 1.66992
328.944000000001 1.66992
329.406000000001 1.61133
329.868 1.68945
330.33 1.68945
330.792000000001 1.78711
331.254 1.80664
331.716 1.8457
332.178000000001 1.8457
332.64 1.78711
333.102 1.88477
333.564000000001 1.86523
334.026000000001 1.9043
334.488 1.9043
334.95 1.92383
335.412000000001 2.04102
335.874 2.08008
336.336 2.00195
336.798000000001 2.02148
337.260000000001 2.06055
337.722 2.09961
338.184 2.1582
338.646000000001 2.13867
339.108 2.2168
339.57 2.11914
340.032000000001 2.2168
340.494000000001 2.1582
340.956 2.19727
341.418 2.29492
341.880000000001 2.33398
342.342 2.29492
342.804 2.27539
343.266000000001 2.37305
343.728 2.35352
344.19 2.43164
344.652000000001 2.31445
345.114000000001 2.43164
345.576 2.35352
346.038 2.43164
346.500000000001 2.50977
346.962 2.5293
347.424 2.50977
347.886000000001 2.62695
348.348000000001 2.66602
348.81 2.80273
349.272 2.90039
349.734000000001 2.91992
350.196 2.90039
350.658 2.91992
351.120000000001 2.91992
351.582000000001 2.86133
352.044 2.91992
352.506000000001 2.97852
352.968000000001 3.03711
353.43 2.93945
353.892 3.01758
354.354000000001 2.97852
354.816 3.03711
355.278 3.01758
355.740000000001 3.05664
356.202000000001 3.0957
356.664 3.17383
357.126 3.1543
357.588000000001 3.19336
358.05 3.1543
358.512 3.25195
358.974000000001 3.27148
359.436000000001 3.27148
359.898 3.21289
360.36 3.27148
360.822000000001 3.29102
361.284 3.29102
361.746 3.34961
362.208000000001 3.34961
362.67 3.36914
363.132 3.44727
363.594000000001 3.4668
364.056000000001 3.4668
364.518 3.36914
364.98 3.4082
365.442000000001 3.36914
365.904 3.4082
366.366 3.42773
366.828000000001 3.4668
367.290000000001 3.50586
367.752 3.54492
368.214 3.62305
368.676000000001 3.56445
369.138 3.56445
369.6 3.52539
370.062000000001 3.50586
370.524000000001 3.56445
370.986 3.54492
371.448 3.54492
371.910000000001 3.62305
372.372 3.62305
372.834 3.60352
373.296000000001 3.70117
373.758 3.66211
374.22 3.7207
374.682000000001 3.66211
375.144000000001 3.7207
375.606 3.7207
376.068 3.64258
376.530000000001 3.79883
376.992 3.7207
377.454 3.7207
377.916000000001 3.79883
378.378000000001 3.79883
378.84 3.81836
379.302 3.79883
379.764000000001 3.74023
380.226 3.75977
380.688 3.87695
381.150000000001 3.79883
381.612000000001 3.87695
382.074 3.85742
382.536000000001 3.83789
382.998000000001 3.91602
383.46 3.87695
383.922 3.93555
384.384000000001 3.93555
384.846 3.97461
385.308 3.97461
385.770000000001 3.89648
386.232000000001 4.01367
386.694 4.01367
387.156 3.99414
387.618000000001 3.95508
388.08 4.01367
388.542 3.97461
389.004000000001 3.97461
389.466000000001 4.01367
389.928 4.0332
390.39 3.95508
390.852000000001 4.01367
391.314 4.01367
391.776 4.07227
392.238000000001 4.01367
392.700000000001 4.01367
393.162 4.05273
393.624000000001 4.0918
394.086000000001 4.05273
394.548 4.18945
395.01 4.11133
395.472000000001 4.05273
395.934 4.07227
396.396 4.15039
396.858000000001 4.16992
397.320000000001 4.15039
397.782 4.18945
398.244 4.15039
398.706000000001 4.13086
399.168 4.13086
399.63 4.18945
400.092000000001 4.15039
400.554000000001 4.22852
401.016 4.13086
401.478 4.15039
401.940000000001 4.22852
402.402 4.22852
402.864 4.24805
403.326000000001 4.26758
403.788 4.26758
404.25 4.24805
404.712000000001 4.28711
405.174000000001 4.30664
405.636 4.26758
406.098 4.22852
406.560000000001 4.32617
407.022 4.26758
407.484 4.32617
407.946000000001 4.36523
408.408000000001 4.36523
408.87 4.32617
409.332 4.44336
409.794000000001 4.4043
410.256 4.30664
410.718 4.30664
411.180000000001 4.32617
411.642000000001 4.32617
412.104 4.32617
412.566000000001 4.36523
413.028000000001 4.4043
413.49 4.46289
413.952 4.38477
414.414000000001 4.44336
414.876 4.3457
415.338 4.32617
415.800000000001 4.4043
416.262000000001 4.38477
416.724 4.36523
417.186 4.50195
417.648000000001 4.50195
418.11 4.54102
418.572 4.50195
419.034000000001 4.48242
